\DATE= 'Fri Mar 30 04:20:13 2007'
\APERNAME= 'SH'
\BUNIT= 'MJy/sr'
\CAL_SET= 'irs_2007_02_12-pb-pfc-trim-omeg-lhbiasfork.cal'
\SOFTWARE= 'CUBISM'
\SOFT_VER= 'v1.50pre3 (March-2007)'
\
\           KEYWORDS FROM FIRST BCD
\
\SIMPLE  =                    T / Fits standard                                  
\BITPIX  =                  -32 / FOUR-BYTE SINGLE PRECISION FLOATING POINT      
\NAXIS   =                    2 / STANDARD FITS FORMAT                           
\NAXIS1  =                  128 /                                                
\NAXIS2  =                  128 /                                                
\ORIGIN  = 'Spitzer Science Center' / Organization generating this FITS file     
\CREATOR = 'S15.3.0 '           / SW version used to create this FITS file       
\TELESCOP= 'Spitzer '                                                            
\INSTRUME= 'IRSX    '                                                            
\CAL_SET = 'C15.0PRE25.A'       / ID for the set of CAL files used               
\CHNLNUM =                    1 / 0=SL, 1=SH, 2=LL, 3=LH                         
\FILENAME= 'IRSX.1.0009498112.0000.0000.01.mipl.fits' / File name                
\EXPTYPE = 'sp      '           / Exposure Type                                  
\REQTYPE = 'AOR     '           / Request type (AOR,IER, or SER)                 
\AOT_TYPE= 'IrsMap  '           / Observation Template Type                      
\AORLABEL= 'IRSM-0031 LH/SH nuc' / AOR Label                                     
\FOVID   =                   52 / Field of View ID                               
\FOVNAME = 'IRS_Short-Hi_Center_Position' / Field of View Name                   
\READMODE= 'RAW     '           / Readout Mode                                   
\                                                                                
\          / PROPOSAL INFORMATION                                                
\                                                                                
\OBSRVR  = 'Robert Kennicutt'   / Observer Name                                  
\OBSRVRID=                  101 / Observer ID of Principal Investigator          
\PROCYCL =                    2 / Proposal Cycle                                 
\PROGID  =                  159 / Program ID                                     
\PROTITLE= 'SINGS: The Spitzer Infrared Nearby Galaxies Survey -- Physics of the'
\PROGCAT =                   27 / Program Category                               
\                                                                                
\          / TIME AND EXPOSURE INFORMATION                                       
\                                                                                
\DATE_OBS= '2004-05-15T22:49:57.672' / Date & time at DCE start                  
\MJD_OBS =            53140.951 / [days] MJD at DCE start (JD-2400000.5)         
\UTCS_OBS=        137933397.672 / [sec] J2000 ephem. time at DCE start           
\SCLK_OBS=        769128682.006 / [sec] SCLK time (since 1/1/1980) at DCE start  
\SAMPTIME=               1.0486 / [sec] Sample integration time                  
\REQMODE =                    4 / ID for mode or type of request                 
\EXPSTRTC=            769128674 / Exposure Start Timestamp Coarse                
\EXPSTRTF=                42277 / Exposure Start Timestamp Fine                  
\GRPARVTC=            769128697 / [sec] Coarse Spacecraft Group Time             
\GRPARVTF=                    0 / [sec] Fine Spacecraft Group Time               
\AIRSCMDN=                    2 / Commanded number of DCEs for IRS               
\AIRS_DET=                    1 / Selected IRS detector for exposure command     
\AIRSEXPM=                    1 / Current Mode of the IRS Exp Manager            
\GRPTIME =               2.0972 / [sec] Group (w/ spin) integration time         
\DEADTIME=               6.2916 / [sec] Reset + boost(s) time                    
\RAMPTIME=                31.46 / [sec] Ramp (total DCE) integration time        
\EXPTOT_T=                62.92 / [sec] Integr. time for all DCEs in exposure    
\AIRSERCT=                    0 / Number of IRS exposure errors                  
\                                                                                
\          / TARGET AND POINTING INFORMATION                                     
\                                                                                
\OBJECT  = 'NGC3627 '           / Target Name                                    
\OBJTYPE = 'TargetFixedSingle'  / Target Type                                    
\RA_HMS  = '11h20m15.5s'        / [hh:mm:ss.s] RA_SLT or CRVAL1 in sexagesimal   
\DEC_DMS = '+12d59m26s'         / [dd:mm:ss] DEC_SLT or CRVAL2 in sexagesimal    
\RA_RQST =     170.064409942912 / [deg] Commanded RA referenced to commanded FOV 
\DEC_RQST=     12.9906827020965 / [deg] Commanded Dec referenced to commanded FOV
\PA_RQST =     298.191916995029 / [deg] Requested pos. angle of axis 2 (E of N)  
\PM_RA   =                   0. / [arcsec/yr] Proper Motion in RA (J2000)        
\PM_DEC  =                   0. / [arcsec/yr] Proper Motion in Dec (J2000)       
\CRDER1  = 0.000301990694607681 / [deg] Uncertainty in RA of SI boresight        
\CRDER2  = 0.000301892104223666 / [deg] Uncertainty in DEC of SI boresight       
\SIGRA   =   0.0136728017947953 / [arcsec] RMS dispersion of RA over DCE         
\SIGDEC  =  0.00895041491468511 / [arcsec] RMS dispersion of DEC over DCE        
\SIGPA   =   0.0432494903569545 / [arcsec] RMS dispersion of PA over DCE         
\PTGDIFF =    0.117199956118462 / [arcsec] offset btwn actual and rqsted pntng   
\PTGDIFFX=   0.0825068758557019 / [arcsec] requested - actual pntg along axis 1  
\PTGDIFFY=   0.0832567125062238 / [arcsec] requested - actual pntg along axis 2  
\RA_REF  =             170.0625 / [deg] Commanded RA (J2000) of ref. position    
\DEC_REF =     12.9916666666666 / [deg] Commanded Dec (J2000) of ref. position   
\USEDBPHF=                    T / T if Boresight Pointing History File was used. 
\RMS_JIT =   0.0113741777715024 / [arcsec] RMS jitter during DCE                 
\RMS_JITY=  0.00563704539333451 / [arcsec] RMS jitter during DCE along Y         
\RMS_JITZ=  0.00987905052174678 / [arcsec] RMS jitter during DCE along Z         
\RA_FOV  =     170.064395862598 / [deg] RA at FOVID averaged over DCE            
\DEC_FOV =     12.9906531745512 / [deg] DEC at FOVID averaged over DCE           
\PA_FOV  =    -20.3372734621652 / [deg] PA at FOVID averaged over DCE            
\RA_SLT  =     170.064395862598 / [deg] RA at slit center averaged over DCE      
\DEC_SLT =     12.9906531745512 / [deg] DEC at slit center averaged over DCE     
\PA_SLT  =    -20.3372734621652 / [deg] PA at slit center averaged over DCE      
\CSDRADEC= 8.26231872451046E-06 / [deg] Costandard deviation in RA and Dec       
\CSD_JTYZ=  0.00294664268349054 / [arcsec] Costandard deviation of jitter in YZ  
\BPHFNAME= 'BPHF.0769089600.04.pntg' / Boresight Pointing History Filename       
\FOVVERSN= 'BodyFrames_FTU_13Aa.xls' / FOV/BodyFrames file version used          
\VHELCORR=                -26.6 / [km/sec] Correction to heliocentric velocity   
\VLSRCORR=                -27.4 / [km/sec] Correction to local standard of rest  
\                                                                                
\          / PHOTOMETRY (IRS IMAGING)                                            
\                                                                                
\BUNIT   = 'e-/sec  '           / Units of image data                            
\                                                                                
\          / SPECTROPHOTOMETRY IRS SH, LH (CHNLNUM 1, 3)                         
\                                                                                
\FLXCON11=             341.4401 / [electrons/sec/Jy] Flux conversion Order 11    
\FLXERR11=                124.5 / Flux conversion uncertainties Order 11         
\FLXCON12=             380.5278 / [electrons/sec/Jy] Flux conversion Order 12    
\FLXERR12=                124.5 / Flux conversion uncertainties Order 12         
\FLXCON13=             415.0448 / [electrons/sec/Jy] Flux conversion Order 13    
\FLXERR13=                124.5 / Flux conversion uncertainties Order 13         
\FLXCON14=             448.0603 / [electrons/sec/Jy] Flux conversion Order 14    
\FLXERR14=                124.5 / Flux conversion uncertainties Order 14         
\FLXCON15=             484.5939 / [electrons/sec/Jy] Flux conversion Order 15    
\FLXERR15=                124.5 / Flux conversion uncertainties Order 15         
\FLXCON16=             531.4951 / [electrons/sec/Jy] Flux conversion Order 16    
\FLXERR16=                124.5 / Flux conversion uncertainties Order 16         
\FLXCON17=             571.8894 / [electrons/sec/Jy] Flux conversion Order 17    
\FLXERR17=                124.5 / Flux conversion uncertainties Order 17         
\FLXCON18=             596.9463 / [electrons/sec/Jy] Flux conversion Order 18    
\FLXERR18=                124.5 / Flux conversion uncertainties Order 18         
\FLXCON19=             693.3268 / [electrons/sec/Jy] Flux conversion Order 19    
\FLXERR19=                124.5 / Flux conversion uncertainties Order 19         
\FLXCON20=             812.9346 / [electrons/sec/Jy] Flux conversion Order 20    
\FLXERR20=                124.5 / Flux conversion uncertainties Order 20         
\                                                                                
\          / GENERAL MAPPING KEYWORDS                                            
\                                                                                
\DBEXPOID=              1351138 / Currnet Exposure ID                            
\COLUMN  =                    1 / Current column number                          
\ROW     =                    1 / Current row number                             
\MAPNUM  =                    1 / Current map cycle number                       
\                                                                                
\          / IRS SPECTRAL MAPPING KEYWORDS                                       
\                                                                                
\NCYCLES =                    2 / Number of cycles                               
\STEPSPAR=                    3 / Number of steps parallel to slit               
\STEPSPER=                    5 / Number of steps perpendicular to slit          
\SIZEPAR =                 5.65 / [arcsec] Step size parallel to slit            
\SIZEPER =                2.525 / [arcsec] Step size perpendicular to slit       
\                                                                                
\          / IRS PEAKUP KEYWORDS                                                 
\                                                                                
\HP_CENQ =                    0 / Peakup centroid quality code                   
\APKUPCEN=                    1 / Status of the peakup centroid                  
\AXCNTRD1=                10791 / [centipixels] X value of the brightest centroid
\AYCNTRD1=                 2799 / [centipixels] Y value of the brightest centroid
\AXCNTRD2=                    0 / [centipixels] X value of the second brightest c
\AYCNTRD2=                    0 / [centipixels] Y value of the second brightest c
\AINTENS1=               531105 / [counts] Intensity value of the brightest centr
\AINTENS2=                    0 / [counts] Intensity value of the second brightes
\APKUPXCE=                10791 / [centipixels] X value of the centroid to be ret
\APKUPYCE=                 2799 / [centipixels] Y value of the centroid to be ret
\                                                                                
\                                                                                
\          / DATA FLOW KEYWORDS                                                  
\                                                                                
\DATE    = '2007-02-01T09:29:18' / [YYYY-MM-DDThh:mm:ss UTC] file creation date  
\AORKEY  = '9498112 '           / AOR or EIR key. Astrnmy Obs Req/Instr Eng Req  
\EXPID   =                    0 / Exposure ID (0-9999)                           
\DCENUM  =                    0 / DCE number (0-9999)                            
\TLMGRPS =                   16 / Number of expected telemetry groups            
\FILE_VER=                    1 / Version of the raw file made by SIS            
\RAWNAME = 'IRSX.1.0009498112.0000.0000.01.mipl.fits' / Raw data file name       
\SIS_SVER= 'J5.2.3  '           / SIS SW VERsion                                 
\CPT_VER = '3.0.95  '           / Channel Param Table FOS version                
\CTD_VER = '3.0.94S '           / Cmded telemetry data version                   
\EXPDFLAG=                    F / (T/F) expedited DCE                            
\MISS_LCT=                    0 / Total Missed Line Cnt in this FITS             
\MANCPKT =                    F / T if this FITS is Missing Ancillary Data       
\MISSDATA=                    F / T if this FITS is Missing Image Data           
\PAONUM  =                  532 / PAO Number                                     
\CAMPAIGN= 'IRSX003100'         / Campaign                                       
\DCEID   =             14561273 / Data-Collection-Event ID                       
\DCEINSID=              2541074 / DCE Instance ID                                
\DPID    =            143961085 / Data Product Instance ID                       
\PIPENUM =                  201 / Pipeline Script Number                         
\SOS_VER =                   1. / Data-Product Version                           
\PLVID   =                    9 / Pipeline Version ID                            
\CALID   =                    3 / CalTrans Version ID                            
\ORIGIN0 = 'JPL_FOS '           / site where RAW FITS files was written          
\CREATOR0= 'J5.2.3  '           / SW system that created RAW FITS                
\                                                                                
\XTCHINSQ=                    0 / Number of rows with poor SH/LH optical crosstal
\XTKUNCOR=                    0 / Number of rows with no SH/LH optical crosstalk 
\GAIN1   =                  4.6 / e/DN conversion (readout channel 1)            
\GAIN2   =                  4.6 / e/DN conversion (readout channel 2)            
\GAIN3   =                  4.6 / e/DN conversion (readout channel 3)            
\GAIN4   =                  4.6 / e/DN conversion (readout channel 4)            
\BASECH1 =             35550.83 / Trimmed mean channel 1 signal in reference unil
\BASECH2 =             34641.57 / Trimmed mean channel 2 signal in reference unil
\BASECH3 =             30118.94 / Trimmed mean channel 3 signal in reference unil
\BASECH4 =             35347.62 / Trimmed mean channel 4 signal in reference unil
\                                                                                
\HISTORY *0 (imported)                                                           
\HISTORY job.c ver: 1.50                                                         
\HISTORY TRANHEAD                  v.         12.6, ran Thu Feb  1 01:28:58 2007 
\HISTORY CALTRANS                 v.        4.0, ran Thu Feb  1 01:29:00 2007    
\HISTORY cvti2r4           v.  1.30 A50506, generated  2/01/07 at  1:29:02       
\HISTORY DNTOFLUX                  v.          4.1, ran Thu Feb  1 01:29:06 2007 
\HISTORY imagest           v.  1.80 A61012, generated  2/01/07 at  1:29:09       
\HISTORY  input: cvte.fits                                                       
\HISTORY  unc.: cvte_unc.fits                                                    
\HISTORY DROOPOP                   v.     3.700000, ran Thu Feb  1 01:29:10 2007 
\HISTORY DARKBASE                  v.     2.200000, ran Thu Feb  1 01:29:12 2007 
\HISTORY CUBESUB                   v.     3.200000, ran Thu Feb  1 01:29:13 2007 
\HISTORY lineariz          v.  1.39 A40318, generated  2/01/07 at  1:29:14       
\HISTORY  input: cubesub.fits                                                    
\HISTORY  model: ./cal/lincal.fits                                               
\HISTORY DARKDRIFT                 v.          4.0, ran Thu Feb  1 01:29:18 2007 
\HISTORY imagest           v.  1.80 A61012, generated  2/01/07 at  1:29:19       
\HISTORY  input: darkdrift.fits                                                  
\HISTORY DROOPRES                  v.     2.200000, ran Thu Feb  1 01:29:20 2007 
\HISTORY CROSSTALK                   v     1.2, ran Thu Feb  1 01:29:22 2007     
\HISTORY FLATAP                    v. 1.500   Thu Feb  1 01:29:23 2007           
\HISTORY CALTRANS                 v.        4.0, ran Thu Feb  1 01:52:33 2007    
\HISTORY PTNTRAN                   v.          1.4, ran Thu Feb  1 01:52:34 2007 
\HISTORY PTNTRAN                   v.          1.4, ran Thu Feb  1 01:52:35 2007 
\HISTORY FPGen                     v.         1.25, ran Thu Feb  1 01:52:35 2007 
\FBIDDARK=                  551                                                  
\FBIDFLAT=                  665                                                  
\FBIDLNCR=                   23                                                  
\FBIDLNMD=                  237                                                  
\FBIDOMSK=                   48                                                  
\FBIDPMSK=                  108                                                  
\FBIDWSMP=                  668                                                  
\FBIDUMSK=                   67                                                  
\FBIDWSOF=                  669                                                  
\FBIDWSOM=                  670                                                  
\FBIDWSWA=                  667                                                  
\FBIDFLXC=                  685                                                  
\FBIDFMSK=                   72                                                  
\FBIDCALS=                  690                                                  
\FBIDLNSC=                  505                                                  
\HISTORY CALTRANS                 v.        4.0, ran Thu Feb  1 02:28:31 2007    
\END                                                                             
\FILENAME= 'ngc3627_DR5_SH_nuc_sp.tbl'
\ COMMENT This file contains a spectral extraction created from
\ COMMENT an IRS spectral mapping dataset.
\ COMMENT The Spitzer Infrared Nearby Galaxy Survey (SINGS) Legacy Project
\ COMMENT For more information on SINGS see http://sings.stsci.edu
\ Extraction Rectangle:
\ # Box: 11:20:14.841,+12:59:16.02 ; 11:20:15.711,+12:59:20.74
\ #      11:20:15.066,+12:59:46.17 ; 11:20:14.196,+12:59:41.45
|   WAVELENGTH    |      FLUX       | FLUX_UNCERTAINTY |
|      real       |      real       |       real       |
|       um        |     MJy/sr      |      MJy/sr      |
         9.966622          25.83980           1.523186
         9.974653          21.73885           1.558792
         9.982685          25.37614           1.460868
         9.990716          26.11272           1.366970
         9.998747          24.77823           1.244758
         10.00678          24.43493           1.339332
         10.01481          26.12113           1.218818
         10.02284          25.62321           1.438879
         10.03087          26.86205           1.548431
         10.03889          22.85119           1.403574
         10.04692          24.11374           1.187061
         10.05495          25.32568           1.168845
         10.06298          25.92963           1.134058
