\DATE= 'Fri Mar 30 05:07:02 2007'
\APERNAME= 'LH'
\BUNIT= 'MJy/sr'
\CAL_SET= 'irs_2007_02_12-pb-pfc-trim-omeg-lhbiasfork.cal'
\SOFTWARE= 'CUBISM'
\SOFT_VER= 'v1.50pre3 (March-2007)'
\
\           KEYWORDS FROM FIRST BCD
\
\SIMPLE  =                    T / Fits standard                                  
\BITPIX  =                  -32 / FOUR-BYTE SINGLE PRECISION FLOATING POINT      
\NAXIS   =                    2 / STANDARD FITS FORMAT                           
\NAXIS1  =                  128 /                                                
\NAXIS2  =                  128 /                                                
\ORIGIN  = 'Spitzer Science Center' / Organization generating this FITS file     
\CREATOR = 'S15.3.0 '           / SW version used to create this FITS file       
\TELESCOP= 'Spitzer '                                                            
\INSTRUME= 'IRSX    '                                                            
\CAL_SET = 'C15.0PRE25.A'       / ID for the set of CAL files used               
\CHNLNUM =                    3 / 0=SL, 1=SH, 2=LL, 3=LH                         
\FILENAME= 'IRSX.3.0009482752.0015.0000.01.mipl.fits' / File name                
\EXPTYPE = 'sp      '           / Exposure Type                                  
\REQTYPE = 'AOR     '           / Request type (AOR,IER, or SER)                 
\AOT_TYPE= 'IrsMap  '           / Observation Template Type                      
\AORLABEL= 'IRSM-0024 LH/SH nuc' / AOR Label                                     
\FOVID   =                   58 / Field of View ID                               
\FOVNAME = 'IRS_Long-Hi_Center_Position' / Field of View Name                    
\READMODE= 'RAW     '           / Readout Mode                                   
\                                                                                
\          / PROPOSAL INFORMATION                                                
\                                                                                
\OBSRVR  = 'Robert Kennicutt'   / Observer Name                                  
\OBSRVRID=                  101 / Observer ID of Principal Investigator          
\PROCYCL =                    2 / Proposal Cycle                                 
\PROGID  =                  159 / Program ID                                     
\PROTITLE= 'SINGS: The Spitzer Infrared Nearby Galaxies Survey -- Physics of the'
\PROGCAT =                   27 / Program Category                               
\                                                                                
\          / TIME AND EXPOSURE INFORMATION                                       
\                                                                                
\DATE_OBS= '2004-05-12T08:53:12.133' / Date & time at DCE start                  
\MJD_OBS =             53137.37 / [days] MJD at DCE start (JD-2400000.5)         
\UTCS_OBS=        137623992.133 / [sec] J2000 ephem. time at DCE start           
\SCLK_OBS=        768819275.464 / [sec] SCLK time (since 1/1/1980) at DCE start  
\SAMPTIME=               2.0316 / [sec] Sample integration time                  
\REQMODE =                    4 / ID for mode or type of request                 
\EXPSTRTC=            768819261 / Exposure Start Timestamp Coarse                
\EXPSTRTF=                14565 / Exposure Start Timestamp Fine                  
\GRPARVTC=            768819305 / [sec] Coarse Spacecraft Group Time             
\GRPARVTF=                    0 / [sec] Fine Spacecraft Group Time               
\AIRSCMDN=                    1 / Commanded number of DCEs for IRS               
\AIRS_DET=                    3 / Selected IRS detector for exposure command     
\AIRSEXPM=                    1 / Current Mode of the IRS Exp Manager            
\GRPTIME =               4.0632 / [sec] Group (w/ spin) integration time         
\DEADTIME=              12.1896 / [sec] Reset + boost(s) time                    
\RAMPTIME=                60.95 / [sec] Ramp (total DCE) integration time        
\EXPTOT_T=                60.95 / [sec] Integr. time for all DCEs in exposure    
\AIRSERCT=                    0 / Number of IRS exposure errors                  
\                                                                                
\          / TARGET AND POINTING INFORMATION                                     
\                                                                                
\OBJECT  = 'NGC4736 '           / Target Name                                    
\OBJTYPE = 'TargetFixedSingle'  / Target Type                                    
\RA_HMS  = '12h50m54.3s'        / [hh:mm:ss.s] RA_SLT or CRVAL1 in sexagesimal   
\DEC_DMS = '+41d07m22s'         / [dd:mm:ss] DEC_SLT or CRVAL2 in sexagesimal    
\RA_RQST =     192.726182473261 / [deg] Commanded RA referenced to commanded FOV 
\DEC_RQST=     41.1225519614772 / [deg] Commanded Dec referenced to commanded FOV
\PA_RQST =     326.562500371185 / [deg] Requested pos. angle of axis 2 (E of N)  
\PM_RA   =                   0. / [arcsec/yr] Proper Motion in RA (J2000)        
\PM_DEC  =                   0. / [arcsec/yr] Proper Motion in Dec (J2000)       
\CRDER1  = 0.000302218443603829 / [deg] Uncertainty in RA of SI boresight        
\CRDER2  = 0.000301964591008332 / [deg] Uncertainty in DEC of SI boresight       
\SIGRA   =   0.0166595873566887 / [arcsec] RMS dispersion of RA over DCE         
\SIGDEC  =    0.018153273784984 / [arcsec] RMS dispersion of DEC over DCE        
\SIGPA   =   0.0934750928920645 / [arcsec] RMS dispersion of PA over DCE         
\PTGDIFF =    0.845358844061671 / [arcsec] offset btwn actual and rqsted pntng   
\PTGDIFFX=    0.329824898715621 / [arcsec] requested - actual pntg along axis 1  
\PTGDIFFY=   -0.778364181700485 / [arcsec] requested - actual pntg along axis 2  
\RA_REF  =            192.72125 / [deg] Commanded RA (J2000) of ref. position    
\DEC_REF =     41.1202777777778 / [deg] Commanded Dec (J2000) of ref. position   
\USEDBPHF=                    T / T if Boresight Pointing History File was used. 
\RMS_JIT =   0.0104626582348797 / [arcsec] RMS jitter during DCE                 
\RMS_JITY=  0.00890207834262013 / [arcsec] RMS jitter during DCE along Y         
\RMS_JITZ=  0.00549729192618965 / [arcsec] RMS jitter during DCE along Z         
\RA_FOV  =     192.726366578745 / [deg] RA at FOVID averaged over DCE            
\DEC_FOV =     41.1227414540658 / [deg] DEC at FOVID averaged over DCE           
\PA_FOV  =    -76.7644905776442 / [deg] PA at FOVID averaged over DCE            
\RA_SLT  =     192.726366578745 / [deg] RA at slit center averaged over DCE      
\DEC_SLT =     41.1227414540658 / [deg] DEC at slit center averaged over DCE     
\PA_SLT  =    -76.7644905776442 / [deg] PA at slit center averaged over DCE      
\CSDRADEC= 6.31199478181283E-06 / [deg] Costandard deviation in RA and Dec       
\CSD_JTYZ= -0.00110737967170497 / [arcsec] Costandard deviation of jitter in YZ  
\BPHFNAME= 'BPHF.0768787200.03.pntg' / Boresight Pointing History Filename       
\FOVVERSN= 'BodyFrames_FTU_13Aa.xls' / FOV/BodyFrames file version used          
\VHELCORR=                -18.2 / [km/sec] Correction to heliocentric velocity   
\VLSRCORR=                 -8.8 / [km/sec] Correction to local standard of rest  
\                                                                                
\          / PHOTOMETRY (IRS IMAGING)                                            
\                                                                                
\BUNIT   = 'e-/sec  '           / Units of image data                            
\                                                                                
\          / SPECTROPHOTOMETRY IRS SH, LH (CHNLNUM 1, 3)                         
\                                                                                
\FLXCON11=             137.9862 / [electrons/sec/Jy] Flux conversion Order 11    
\FLXERR11=                124.5 / Flux conversion uncertainties Order 11         
\FLXCON12=             140.1512 / [electrons/sec/Jy] Flux conversion Order 12    
\FLXERR12=                124.5 / Flux conversion uncertainties Order 12         
\FLXCON13=             141.1089 / [electrons/sec/Jy] Flux conversion Order 13    
\FLXERR13=                124.5 / Flux conversion uncertainties Order 13         
\FLXCON14=             134.1085 / [electrons/sec/Jy] Flux conversion Order 14    
\FLXERR14=                124.5 / Flux conversion uncertainties Order 14         
\FLXCON15=             128.4661 / [electrons/sec/Jy] Flux conversion Order 15    
\FLXERR15=                124.5 / Flux conversion uncertainties Order 15         
\FLXCON16=             126.8159 / [electrons/sec/Jy] Flux conversion Order 16    
\FLXERR16=                124.5 / Flux conversion uncertainties Order 16         
\FLXCON17=             122.8713 / [electrons/sec/Jy] Flux conversion Order 17    
\FLXERR17=                124.5 / Flux conversion uncertainties Order 17         
\FLXCON18=             128.8529 / [electrons/sec/Jy] Flux conversion Order 18    
\FLXERR18=                124.5 / Flux conversion uncertainties Order 18         
\FLXCON19=             129.0041 / [electrons/sec/Jy] Flux conversion Order 19    
\FLXERR19=                124.5 / Flux conversion uncertainties Order 19         
\FLXCON20=              129.173 / [electrons/sec/Jy] Flux conversion Order 20    
\FLXERR20=                124.5 / Flux conversion uncertainties Order 20         
\                                                                                
\          / GENERAL MAPPING KEYWORDS                                            
\                                                                                
\DBEXPOID=              1314456 / Currnet Exposure ID                            
\COLUMN  =                    1 / Current column number                          
\ROW     =                    1 / Current row number                             
\MAPNUM  =                    1 / Current map cycle number                       
\                                                                                
\          / IRS SPECTRAL MAPPING KEYWORDS                                       
\                                                                                
\NCYCLES =                    1 / Number of cycles                               
\STEPSPAR=                    3 / Number of steps parallel to slit               
\STEPSPER=                    5 / Number of steps perpendicular to slit          
\SIZEPAR =                11.15 / [arcsec] Step size parallel to slit            
\SIZEPER =                5.515 / [arcsec] Step size perpendicular to slit       
\                                                                                
\          / IRS PEAKUP KEYWORDS                                                 
\                                                                                
\HP_CENQ =                    0 / Peakup centroid quality code                   
\APKUPCEN=                    1 / Status of the peakup centroid                  
\AXCNTRD1=                10797 / [centipixels] X value of the brightest centroid
\AYCNTRD1=                 2816 / [centipixels] Y value of the brightest centroid
\AXCNTRD2=                    0 / [centipixels] X value of the second brightest c
\AYCNTRD2=                    0 / [centipixels] Y value of the second brightest c
\AINTENS1=               142439 / [counts] Intensity value of the brightest centr
\AINTENS2=                    0 / [counts] Intensity value of the second brightes
\APKUPXCE=                10797 / [centipixels] X value of the centroid to be ret
\APKUPYCE=                 2816 / [centipixels] Y value of the centroid to be ret
\                                                                                
\                                                                                
\          / DATA FLOW KEYWORDS                                                  
\                                                                                
\DATE    = '2007-02-01T06:52:14' / [YYYY-MM-DDThh:mm:ss UTC] file creation date  
\AORKEY  = '9482752 '           / AOR or EIR key. Astrnmy Obs Req/Instr Eng Req  
\EXPID   =                   15 / Exposure ID (0-9999)                           
\DCENUM  =                    0 / DCE number (0-9999)                            
\TLMGRPS =                   16 / Number of expected telemetry groups            
\FILE_VER=                    1 / Version of the raw file made by SIS            
\RAWNAME = 'IRSX.3.0009482752.0015.0000.01.mipl.fits' / Raw data file name       
\SIS_SVER= 'J5.2.3  '           / SIS SW VERsion                                 
\CPT_VER = '3.0.95  '           / Channel Param Table FOS version                
\CTD_VER = '3.0.94S '           / Cmded telemetry data version                   
\EXPDFLAG=                    F / (T/F) expedited DCE                            
\MISS_LCT=                    0 / Total Missed Line Cnt in this FITS             
\MANCPKT =                    F / T if this FITS is Missing Ancillary Data       
\MISSDATA=                    F / T if this FITS is Missing Image Data           
\PAONUM  =                  524 / PAO Number                                     
\CAMPAIGN= 'IRSX003100'         / Campaign                                       
\DCEID   =             14072257 / Data-Collection-Event ID                       
\DCEINSID=              2537074 / DCE Instance ID                                
\DPID    =            143950078 / Data Product Instance ID                       
\PIPENUM =                  201 / Pipeline Script Number                         
\SOS_VER =                   1. / Data-Product Version                           
\PLVID   =                   11 / Pipeline Version ID                            
\CALID   =                    5 / CalTrans Version ID                            
\ORIGIN0 = 'JPL_FOS '           / site where RAW FITS files was written          
\CREATOR0= 'J5.2.3  '           / SW system that created RAW FITS                
\                                                                                
\XTCHINSQ=                    0 / Number of rows with poor SH/LH optical crosstal
\XTKUNCOR=                    0 / Number of rows with no SH/LH optical crosstalk 
\GAIN1   =                  4.6 / e/DN conversion (readout channel 1)            
\GAIN2   =                  4.6 / e/DN conversion (readout channel 2)            
\GAIN3   =                  4.6 / e/DN conversion (readout channel 3)            
\GAIN4   =                  4.6 / e/DN conversion (readout channel 4)            
\BASECH1 =             32721.38 / Trimmed mean channel 1 signal in reference unil
\BASECH2 =             35428.02 / Trimmed mean channel 2 signal in reference unil
\BASECH3 =             33098.83 / Trimmed mean channel 3 signal in reference unil
\BASECH4 =             34289.93 / Trimmed mean channel 4 signal in reference unil
\                                                                                
\HISTORY *0 (imported)                                                           
\HISTORY job.c ver: 1.50                                                         
\HISTORY TRANHEAD                  v.         12.6, ran Wed Jan 31 22:51:50 2007 
\HISTORY CALTRANS                 v.        4.0, ran Wed Jan 31 22:51:53 2007    
\HISTORY cvti2r4           v.  1.30 A50506, generated  1/31/07 at 22:51:55       
\HISTORY DNTOFLUX                  v.          4.1, ran Wed Jan 31 22:51:58 2007 
\HISTORY imagest           v.  1.80 A61012, generated  1/31/07 at 22:52:01       
\HISTORY  input: cvte.fits                                                       
\HISTORY  unc.: cvte_unc.fits                                                    
\HISTORY DROOPOP                   v.     3.700000, ran Wed Jan 31 22:52:02 2007 
\HISTORY DARKBASE                  v.     2.200000, ran Wed Jan 31 22:52:05 2007 
\HISTORY CUBESUB                   v.     3.200000, ran Wed Jan 31 22:52:06 2007 
\HISTORY lineariz          v.  1.39 A40318, generated  1/31/07 at 22:52:07       
\HISTORY  input: cubesub.fits                                                    
\HISTORY  model: ./cal/lincal.fits                                               
\HISTORY DARKDRIFT                 v.          4.0, ran Wed Jan 31 22:52:14 2007 
\HISTORY imagest           v.  1.80 A61012, generated  1/31/07 at 22:52:16       
\HISTORY  input: darkdrift.fits                                                  
\HISTORY DROOPRES                  v.     2.200000, ran Wed Jan 31 22:52:17 2007 
\HISTORY CROSSTALK                   v     1.2, ran Wed Jan 31 22:52:19 2007     
\HISTORY FLATAP                    v. 1.500   Wed Jan 31 22:52:20 2007           
\HISTORY CALTRANS                 v.        4.0, ran Wed Jan 31 22:58:59 2007    
\HISTORY PTNTRAN                   v.          1.4, ran Wed Jan 31 22:59:01 2007 
\HISTORY PTNTRAN                   v.          1.4, ran Wed Jan 31 22:59:01 2007 
\HISTORY FPGen                     v.         1.25, ran Wed Jan 31 22:59:02 2007 
\FBIDDARK=                  581                                                  
\FBIDFLAT=                  686                                                  
\FBIDLNCR=                   25                                                  
\FBIDLNMD=                  455                                                  
\FBIDOMSK=                   49                                                  
\FBIDPMSK=                  153                                                  
\FBIDWSMP=                  413                                                  
\FBIDUMSK=                   69                                                  
\FBIDWSOF=                  429                                                  
\FBIDWSOM=                  430                                                  
\FBIDWSWA=                  428                                                  
\FBIDFLXC=                  688                                                  
\FBIDFMSK=                   74                                                  
\FBIDCALS=                  690                                                  
\FBIDLNSC=                  505                                                  
\HISTORY CALTRANS                 v.        4.0, ran Wed Jan 31 23:15:26 2007    
\END                                                                             
\FILENAME= 'ngc4736_DR5_LH_nuc_sp.tbl'
\ COMMENT This file contains a spectral extraction created from
\ COMMENT an IRS spectral mapping dataset.
\ COMMENT The Spitzer Infrared Nearby Galaxy Survey (SINGS) Legacy Project
\ COMMENT For more information on SINGS see http://sings.stsci.edu
\ Extraction Rectangle:
\ # Box: 12:50:52.379,+41:07:01.81 ; 12:50:53.567,+41:06:59.92
\ #      12:50:53.902,+41:07:26.77 ; 12:50:52.714,+41:07:28.67
|   WAVELENGTH    |      FLUX       | FLUX_UNCERTAINTY |
|      real       |      real       |       real       |
|       um        |     MJy/sr      |      MJy/sr      |
         19.12351          61.69989           2.995162
         19.13956          69.11768           3.054895
         19.15558          68.35358           2.561371
         19.17159          60.81902           2.187535
         19.18759          68.63394           1.942901
         19.20358          67.66341           1.379615
         19.21954          67.71892           1.621943
         19.23549          71.68269           1.397236
         19.25143          66.99351           1.669271
         19.26736          66.30064           1.144695
         19.28327          68.83493           1.374571
         19.29916          68.89547          0.7196124
         19.31504          71.13688          0.6508400
