\DATE= 'Fri Mar 30 05:07:01 2007'
\APERNAME= 'SH'
\BUNIT= 'MJy/sr'
\CAL_SET= 'irs_2007_02_12-pb-pfc-trim-omeg-lhbiasfork.cal'
\SOFTWARE= 'CUBISM'
\SOFT_VER= 'v1.50pre3 (March-2007)'
\
\           KEYWORDS FROM FIRST BCD
\
\SIMPLE  =                    T / Fits standard                                  
\BITPIX  =                  -32 / FOUR-BYTE SINGLE PRECISION FLOATING POINT      
\NAXIS   =                    2 / STANDARD FITS FORMAT                           
\NAXIS1  =                  128 /                                                
\NAXIS2  =                  128 /                                                
\ORIGIN  = 'Spitzer Science Center' / Organization generating this FITS file     
\CREATOR = 'S15.3.0 '           / SW version used to create this FITS file       
\TELESCOP= 'Spitzer '                                                            
\INSTRUME= 'IRSX    '                                                            
\CAL_SET = 'C15.0PRE25.A'       / ID for the set of CAL files used               
\CHNLNUM =                    1 / 0=SL, 1=SH, 2=LL, 3=LH                         
\FILENAME= 'IRSX.1.0009482752.0000.0000.01.mipl.fits' / File name                
\EXPTYPE = 'sp      '           / Exposure Type                                  
\REQTYPE = 'AOR     '           / Request type (AOR,IER, or SER)                 
\AOT_TYPE= 'IrsMap  '           / Observation Template Type                      
\AORLABEL= 'IRSM-0024 LH/SH nuc' / AOR Label                                     
\FOVID   =                   52 / Field of View ID                               
\FOVNAME = 'IRS_Short-Hi_Center_Position' / Field of View Name                   
\READMODE= 'RAW     '           / Readout Mode                                   
\                                                                                
\          / PROPOSAL INFORMATION                                                
\                                                                                
\OBSRVR  = 'Robert Kennicutt'   / Observer Name                                  
\OBSRVRID=                  101 / Observer ID of Principal Investigator          
\PROCYCL =                    2 / Proposal Cycle                                 
\PROGID  =                  159 / Program ID                                     
\PROTITLE= 'SINGS: The Spitzer Infrared Nearby Galaxies Survey -- Physics of the'
\PROGCAT =                   27 / Program Category                               
\                                                                                
\          / TIME AND EXPOSURE INFORMATION                                       
\                                                                                
\DATE_OBS= '2004-05-12T08:29:53.255' / Date & time at DCE start                  
\MJD_OBS =            53137.354 / [days] MJD at DCE start (JD-2400000.5)         
\UTCS_OBS=        137622593.255 / [sec] J2000 ephem. time at DCE start           
\SCLK_OBS=        768817876.581 / [sec] SCLK time (since 1/1/1980) at DCE start  
\SAMPTIME=               1.0486 / [sec] Sample integration time                  
\REQMODE =                    4 / ID for mode or type of request                 
\EXPSTRTC=            768817869 / Exposure Start Timestamp Coarse                
\EXPSTRTF=                14425 / Exposure Start Timestamp Fine                  
\GRPARVTC=            768817892 / [sec] Coarse Spacecraft Group Time             
\GRPARVTF=                    0 / [sec] Fine Spacecraft Group Time               
\AIRSCMDN=                    2 / Commanded number of DCEs for IRS               
\AIRS_DET=                    1 / Selected IRS detector for exposure command     
\AIRSEXPM=                    1 / Current Mode of the IRS Exp Manager            
\GRPTIME =               2.0972 / [sec] Group (w/ spin) integration time         
\DEADTIME=               6.2916 / [sec] Reset + boost(s) time                    
\RAMPTIME=                31.46 / [sec] Ramp (total DCE) integration time        
\EXPTOT_T=                62.92 / [sec] Integr. time for all DCEs in exposure    
\AIRSERCT=                    0 / Number of IRS exposure errors                  
\                                                                                
\          / TARGET AND POINTING INFORMATION                                     
\                                                                                
\OBJECT  = 'NGC4736 '           / Target Name                                    
\OBJTYPE = 'TargetFixedSingle'  / Target Type                                    
\RA_HMS  = '12h50m53.5s'        / [hh:mm:ss.s] RA_SLT or CRVAL1 in sexagesimal   
\DEC_DMS = '+41d07m07s'         / [dd:mm:ss] DEC_SLT or CRVAL2 in sexagesimal    
\RA_RQST =      192.72280304057 / [deg] Commanded RA referenced to commanded FOV 
\DEC_RQST=     41.1185276652268 / [deg] Commanded Dec referenced to commanded FOV
\PA_RQST =     326.562500371185 / [deg] Requested pos. angle of axis 2 (E of N)  
\PM_RA   =                   0. / [arcsec/yr] Proper Motion in RA (J2000)        
\PM_DEC  =                   0. / [arcsec/yr] Proper Motion in Dec (J2000)       
\CRDER1  =  0.00030221292877868 / [deg] Uncertainty in RA of SI boresight        
\CRDER2  = 0.000301969205771993 / [deg] Uncertainty in DEC of SI boresight       
\SIGRA   =   0.0129020806650186 / [arcsec] RMS dispersion of RA over DCE         
\SIGDEC  =  0.00995100497621597 / [arcsec] RMS dispersion of DEC over DCE        
\SIGPA   =   0.0474269899473548 / [arcsec] RMS dispersion of PA over DCE         
\PTGDIFF =   0.0850667088383086 / [arcsec] offset btwn actual and rqsted pntng   
\PTGDIFFX=   0.0711991999394793 / [arcsec] requested - actual pntg along axis 1  
\PTGDIFFY=   0.0465763238017914 / [arcsec] requested - actual pntg along axis 2  
\RA_REF  =            192.72125 / [deg] Commanded RA (J2000) of ref. position    
\DEC_REF =     41.1202777777778 / [deg] Commanded Dec (J2000) of ref. position   
\USEDBPHF=                    T / T if Boresight Pointing History File was used. 
\RMS_JIT =   0.0172169012790854 / [arcsec] RMS jitter during DCE                 
\RMS_JITY=   0.0105207640167878 / [arcsec] RMS jitter during DCE along Y         
\RMS_JITZ=   0.0136284707196676 / [arcsec] RMS jitter during DCE along Z         
\RA_FOV  =     192.722782365226 / [deg] RA at FOVID averaged over DCE            
\DEC_FOV =     41.1185098906682 / [deg] DEC at FOVID averaged over DCE           
\PA_FOV  =     8.03651074455288 / [deg] PA at FOVID averaged over DCE            
\RA_SLT  =     192.722782365226 / [deg] RA at slit center averaged over DCE      
\DEC_SLT =     41.1185098906682 / [deg] DEC at slit center averaged over DCE     
\PA_SLT  =     8.03651074455288 / [deg] PA at slit center averaged over DCE      
\CSDRADEC= 6.43326766661938E-06 / [deg] Costandard deviation in RA and Dec       
\CSD_JTYZ= -0.00704434353521941 / [arcsec] Costandard deviation of jitter in YZ  
\BPHFNAME= 'BPHF.0768787200.03.pntg' / Boresight Pointing History Filename       
\FOVVERSN= 'BodyFrames_FTU_13Aa.xls' / FOV/BodyFrames file version used          
\VHELCORR=                -18.2 / [km/sec] Correction to heliocentric velocity   
\VLSRCORR=                 -8.8 / [km/sec] Correction to local standard of rest  
\                                                                                
\          / PHOTOMETRY (IRS IMAGING)                                            
\                                                                                
\BUNIT   = 'e-/sec  '           / Units of image data                            
\                                                                                
\          / SPECTROPHOTOMETRY IRS SH, LH (CHNLNUM 1, 3)                         
\                                                                                
\FLXCON11=             341.4401 / [electrons/sec/Jy] Flux conversion Order 11    
\FLXERR11=                124.5 / Flux conversion uncertainties Order 11         
\FLXCON12=             380.5278 / [electrons/sec/Jy] Flux conversion Order 12    
\FLXERR12=                124.5 / Flux conversion uncertainties Order 12         
\FLXCON13=             415.0448 / [electrons/sec/Jy] Flux conversion Order 13    
\FLXERR13=                124.5 / Flux conversion uncertainties Order 13         
\FLXCON14=             448.0603 / [electrons/sec/Jy] Flux conversion Order 14    
\FLXERR14=                124.5 / Flux conversion uncertainties Order 14         
\FLXCON15=             484.5939 / [electrons/sec/Jy] Flux conversion Order 15    
\FLXERR15=                124.5 / Flux conversion uncertainties Order 15         
\FLXCON16=             531.4951 / [electrons/sec/Jy] Flux conversion Order 16    
\FLXERR16=                124.5 / Flux conversion uncertainties Order 16         
\FLXCON17=             571.8894 / [electrons/sec/Jy] Flux conversion Order 17    
\FLXERR17=                124.5 / Flux conversion uncertainties Order 17         
\FLXCON18=             596.9463 / [electrons/sec/Jy] Flux conversion Order 18    
\FLXERR18=                124.5 / Flux conversion uncertainties Order 18         
\FLXCON19=             693.3268 / [electrons/sec/Jy] Flux conversion Order 19    
\FLXERR19=                124.5 / Flux conversion uncertainties Order 19         
\FLXCON20=             812.9346 / [electrons/sec/Jy] Flux conversion Order 20    
\FLXERR20=                124.5 / Flux conversion uncertainties Order 20         
\                                                                                
\          / GENERAL MAPPING KEYWORDS                                            
\                                                                                
\DBEXPOID=              1314441 / Currnet Exposure ID                            
\COLUMN  =                    1 / Current column number                          
\ROW     =                    1 / Current row number                             
\MAPNUM  =                    1 / Current map cycle number                       
\                                                                                
\          / IRS SPECTRAL MAPPING KEYWORDS                                       
\                                                                                
\NCYCLES =                    2 / Number of cycles                               
\STEPSPAR=                    3 / Number of steps parallel to slit               
\STEPSPER=                    5 / Number of steps perpendicular to slit          
\SIZEPAR =                 5.65 / [arcsec] Step size parallel to slit            
\SIZEPER =                2.525 / [arcsec] Step size perpendicular to slit       
\                                                                                
\          / IRS PEAKUP KEYWORDS                                                 
\                                                                                
\HP_CENQ =                    0 / Peakup centroid quality code                   
\APKUPCEN=                    1 / Status of the peakup centroid                  
\AXCNTRD1=                10797 / [centipixels] X value of the brightest centroid
\AYCNTRD1=                 2816 / [centipixels] Y value of the brightest centroid
\AXCNTRD2=                    0 / [centipixels] X value of the second brightest c
\AYCNTRD2=                    0 / [centipixels] Y value of the second brightest c
\AINTENS1=               142439 / [counts] Intensity value of the brightest centr
\AINTENS2=                    0 / [counts] Intensity value of the second brightes
\APKUPXCE=                10797 / [centipixels] X value of the centroid to be ret
\APKUPYCE=                 2816 / [centipixels] Y value of the centroid to be ret
\                                                                                
\                                                                                
\          / DATA FLOW KEYWORDS                                                  
\                                                                                
\DATE    = '2007-02-01T06:56:30' / [YYYY-MM-DDThh:mm:ss UTC] file creation date  
\AORKEY  = '9482752 '           / AOR or EIR key. Astrnmy Obs Req/Instr Eng Req  
\EXPID   =                    0 / Exposure ID (0-9999)                           
\DCENUM  =                    0 / DCE number (0-9999)                            
\TLMGRPS =                   16 / Number of expected telemetry groups            
\FILE_VER=                    1 / Version of the raw file made by SIS            
\RAWNAME = 'IRSX.1.0009482752.0000.0000.01.mipl.fits' / Raw data file name       
\SIS_SVER= 'J5.2.3  '           / SIS SW VERsion                                 
\CPT_VER = '3.0.95  '           / Channel Param Table FOS version                
\CTD_VER = '3.0.94S '           / Cmded telemetry data version                   
\EXPDFLAG=                    F / (T/F) expedited DCE                            
\MISS_LCT=                    0 / Total Missed Line Cnt in this FITS             
\MANCPKT =                    F / T if this FITS is Missing Ancillary Data       
\MISSDATA=                    F / T if this FITS is Missing Image Data           
\PAONUM  =                  524 / PAO Number                                     
\CAMPAIGN= 'IRSX003100'         / Campaign                                       
\DCEID   =             14072227 / Data-Collection-Event ID                       
\DCEINSID=              2537044 / DCE Instance ID                                
\DPID    =            143950798 / Data Product Instance ID                       
\PIPENUM =                  201 / Pipeline Script Number                         
\SOS_VER =                   1. / Data-Product Version                           
\PLVID   =                    9 / Pipeline Version ID                            
\CALID   =                    3 / CalTrans Version ID                            
\ORIGIN0 = 'JPL_FOS '           / site where RAW FITS files was written          
\CREATOR0= 'J5.2.3  '           / SW system that created RAW FITS                
\                                                                                
\XTCHINSQ=                    0 / Number of rows with poor SH/LH optical crosstal
\XTKUNCOR=                    0 / Number of rows with no SH/LH optical crosstalk 
\GAIN1   =                  4.6 / e/DN conversion (readout channel 1)            
\GAIN2   =                  4.6 / e/DN conversion (readout channel 2)            
\GAIN3   =                  4.6 / e/DN conversion (readout channel 3)            
\GAIN4   =                  4.6 / e/DN conversion (readout channel 4)            
\BASECH1 =             35586.84 / Trimmed mean channel 1 signal in reference unil
\BASECH2 =             34787.97 / Trimmed mean channel 2 signal in reference unil
\BASECH3 =              30367.7 / Trimmed mean channel 3 signal in reference unil
\BASECH4 =             35569.06 / Trimmed mean channel 4 signal in reference unil
\                                                                                
\HISTORY *0 (imported)                                                           
\HISTORY job.c ver: 1.50                                                         
\HISTORY TRANHEAD                  v.         12.6, ran Wed Jan 31 22:56:00 2007 
\HISTORY CALTRANS                 v.        4.0, ran Wed Jan 31 22:56:02 2007    
\HISTORY cvti2r4           v.  1.30 A50506, generated  1/31/07 at 22:56:03       
\HISTORY DNTOFLUX                  v.          4.1, ran Wed Jan 31 22:56:06 2007 
\HISTORY imagest           v.  1.80 A61012, generated  1/31/07 at 22:56:10       
\HISTORY  input: cvte.fits                                                       
\HISTORY  unc.: cvte_unc.fits                                                    
\HISTORY DROOPOP                   v.     3.700000, ran Wed Jan 31 22:56:12 2007 
\HISTORY DARKBASE                  v.     2.200000, ran Wed Jan 31 22:56:16 2007 
\HISTORY CUBESUB                   v.     3.200000, ran Wed Jan 31 22:56:18 2007 
\HISTORY lineariz          v.  1.39 A40318, generated  1/31/07 at 22:56:19       
\HISTORY  input: cubesub.fits                                                    
\HISTORY  model: ./cal/lincal.fits                                               
\HISTORY DARKDRIFT                 v.          4.0, ran Wed Jan 31 22:56:30 2007 
\HISTORY imagest           v.  1.80 A61012, generated  1/31/07 at 22:56:33       
\HISTORY  input: darkdrift.fits                                                  
\HISTORY DROOPRES                  v.     2.200000, ran Wed Jan 31 22:56:37 2007 
\HISTORY CROSSTALK                   v     1.2, ran Wed Jan 31 22:56:45 2007     
\HISTORY FLATAP                    v. 1.500   Wed Jan 31 22:56:48 2007           
\HISTORY CALTRANS                 v.        4.0, ran Wed Jan 31 23:11:22 2007    
\HISTORY PTNTRAN                   v.          1.4, ran Wed Jan 31 23:11:24 2007 
\HISTORY PTNTRAN                   v.          1.4, ran Wed Jan 31 23:11:24 2007 
\HISTORY FPGen                     v.         1.25, ran Wed Jan 31 23:11:25 2007 
\FBIDDARK=                  551                                                  
\FBIDFLAT=                  665                                                  
\FBIDLNCR=                   23                                                  
\FBIDLNMD=                  237                                                  
\FBIDOMSK=                   48                                                  
\FBIDPMSK=                  108                                                  
\FBIDWSMP=                  668                                                  
\FBIDUMSK=                   67                                                  
\FBIDWSOF=                  669                                                  
\FBIDWSOM=                  670                                                  
\FBIDWSWA=                  667                                                  
\FBIDFLXC=                  685                                                  
\FBIDFMSK=                   72                                                  
\FBIDCALS=                  690                                                  
\FBIDLNSC=                  505                                                  
\HISTORY CALTRANS                 v.        4.0, ran Wed Jan 31 23:33:46 2007    
\END                                                                             
\FILENAME= 'ngc4736_DR5_SH_nuc_sp.tbl'
\ COMMENT This file contains a spectral extraction created from
\ COMMENT an IRS spectral mapping dataset.
\ COMMENT The Spitzer Infrared Nearby Galaxy Survey (SINGS) Legacy Project
\ COMMENT For more information on SINGS see http://sings.stsci.edu
\ Extraction Rectangle:
\ # Box: 12:50:52.379,+41:07:01.81 ; 12:50:53.567,+41:06:59.92
\ #      12:50:53.902,+41:07:26.77 ; 12:50:52.714,+41:07:28.67
|   WAVELENGTH    |      FLUX       | FLUX_UNCERTAINTY |
|      real       |      real       |       real       |
|       um        |     MJy/sr      |      MJy/sr      |
         9.966622          57.20858           1.823524
         9.974653          53.72567           1.741175
         9.982685          53.97589           1.750512
         9.990716          55.26950           1.548586
         9.998747          55.67953           1.474486
         10.00678          54.02094           1.494614
         10.01481          52.93377           1.473430
         10.02284          53.86565           1.426206
         10.03087          54.07355           1.551098
         10.03889          51.31397           1.494353
         10.04692          55.72083           1.353339
         10.05495          57.02869           1.232982
         10.06298          58.76180           1.275923
